Data from KUR1_Absorbance_1.txt Node
Date: Fri Jun 25 20:44:12 AKDT 2021
User: Nathan McTigue
Spectrometer: FLMS12711
Trigger mode: 0
Integration Time (sec): 1.123000E-2
Scans to average: 20
Electric dark correction enabled: true
Nonlinearity correction enabled: true
Boxcar width: 0
XAxis mode: Wavelengths
Number of Pixels in Spectrum: 2048
>>>>>Begin Spectral Data<<<<<
180.743	0.476
181.114	0.476
181.484	0.476
181.854	0.489
182.224	-0.338
182.594	0.549
182.964	0.381
183.334	-0.143
183.704	-0.039
184.074	0.286
184.444	-0
184.814	1.274
185.184	0.019
185.554	-0
185.924	-0.252
186.294	-0
186.664	-0.65
187.034	0.461
187.403	-0.342
187.773	-0
188.143	-0.134
188.512	-0.323
188.882	-0
189.252	0.403
189.621	0.416
189.991	0.44
190.36	0.431
190.73	0.457
191.099	0.456
191.469	0.456
191.838	0.465
192.208	0.457
192.577	0.446
192.946	0.449
193.316	0.446
193.685	0.437
194.054	0.437
194.424	0.435
194.793	0.432
195.162	0.422
195.531	0.424
195.9	0.418
196.269	0.408
196.638	0.403
197.007	0.398
197.376	0.4
197.745	0.392
198.114	0.394
198.483	0.385
198.852	0.383
199.221	0.384
199.59	0.376
199.959	0.374
200.327	0.367
200.696	0.365
201.065	0.36
201.434	0.357
201.802	0.355
202.171	0.354
202.539	0.346
202.908	0.351
203.277	0.347
203.645	0.345
204.014	0.337
204.382	0.338
204.751	0.334
205.119	0.338
205.487	0.332
205.856	0.33
206.224	0.327
206.592	0.326
206.961	0.326
207.329	0.322
207.697	0.317
208.065	0.317
208.433	0.315
208.801	0.315
209.17	0.309
209.538	0.309
209.906	0.305
210.274	0.31
210.642	0.305
211.01	0.303
211.378	0.298
211.745	0.297
212.113	0.296
212.481	0.293
212.849	0.292
213.217	0.287
213.584	0.288
213.952	0.288
214.32	0.281
214.687	0.284
215.055	0.277
215.423	0.272
215.79	0.275
216.158	0.269
216.525	0.271
216.893	0.27
217.26	0.267
217.628	0.265
217.995	0.262
218.363	0.265
218.73	0.257
219.097	0.259
219.464	0.256
219.832	0.253
220.199	0.252
220.566	0.252
220.933	0.249
221.3	0.246
221.668	0.247
222.035	0.246
222.402	0.245
222.769	0.242
223.136	0.241
223.503	0.238
223.87	0.238
224.237	0.237
224.603	0.235
224.97	0.232
225.337	0.23
225.704	0.228
226.071	0.229
226.437	0.228
226.804	0.227
227.171	0.224
227.537	0.223
227.904	0.22
228.271	0.221
228.637	0.217
229.004	0.219
229.37	0.216
229.737	0.215
230.103	0.214
230.47	0.21
230.836	0.208
231.202	0.207
231.569	0.208
231.935	0.203
232.301	0.203
232.667	0.203
233.034	0.201
233.4	0.2
233.766	0.196
234.132	0.195
234.498	0.195
234.864	0.194
235.23	0.194
235.596	0.192
235.962	0.19
236.328	0.19
236.694	0.191
237.06	0.187
237.426	0.186
237.792	0.183
238.157	0.181
238.523	0.181
238.889	0.182
239.255	0.182
239.62	0.18
239.986	0.18
240.351	0.177
240.717	0.179
241.083	0.176
241.448	0.176
241.814	0.174
242.179	0.173
242.545	0.174
242.91	0.174
243.275	0.173
243.641	0.171
244.006	0.172
244.371	0.17
244.737	0.17
245.102	0.168
245.467	0.168
245.832	0.169
246.197	0.166
246.562	0.166
246.927	0.166
247.293	0.164
247.658	0.165
248.023	0.166
248.388	0.163
248.752	0.163
249.117	0.163
249.482	0.161
249.847	0.161
250.212	0.162
250.577	0.162
250.941	0.16
251.306	0.16
251.671	0.159
252.035	0.155
252.4	0.158
252.765	0.156
253.129	0.157
253.494	0.155
253.858	0.156
254.223	0.155
254.587	0.156
254.952	0.152
255.316	0.154
255.68	0.153
256.045	0.153
256.409	0.153
256.773	0.152
257.138	0.151
257.502	0.149
257.866	0.148
258.23	0.148
258.594	0.148
258.958	0.147
259.322	0.146
259.686	0.147
260.05	0.145
260.414	0.146
260.778	0.146
261.142	0.144
261.506	0.143
261.87	0.145
262.234	0.142
262.598	0.142
262.961	0.141
263.325	0.142
263.689	0.141
264.052	0.139
264.416	0.138
264.78	0.138
265.143	0.138
265.507	0.138
265.87	0.138
266.234	0.135
266.597	0.135
266.961	0.133
267.324	0.135
267.687	0.133
268.051	0.133
268.414	0.131
268.777	0.131
269.141	0.129
269.504	0.13
269.867	0.129
270.23	0.126
270.593	0.126
270.956	0.126
271.319	0.126
271.682	0.126
272.045	0.124
272.408	0.123
272.771	0.121
273.134	0.122
273.497	0.122
273.86	0.12
274.223	0.12
274.585	0.12
274.948	0.118
275.311	0.12
275.674	0.114
276.036	0.116
276.399	0.115
276.762	0.116
277.124	0.113
277.487	0.115
277.849	0.115
278.212	0.113
278.574	0.111
278.936	0.111
279.299	0.111
279.661	0.11
280.024	0.107
280.386	0.108
280.748	0.106
281.11	0.105
281.472	0.105
281.835	0.105
282.197	0.105
282.559	0.104
282.921	0.104
283.283	0.102
283.645	0.102
284.007	0.1
284.369	0.101
284.731	0.099
285.093	0.098
285.455	0.099
285.816	0.098
286.178	0.098
286.54	0.094
286.902	0.097
287.263	0.096
287.625	0.095
287.987	0.094
288.348	0.092
288.71	0.092
289.071	0.093
289.433	0.091
289.794	0.091
290.156	0.089
290.517	0.088
290.879	0.088
291.24	0.088
291.601	0.089
291.963	0.086
292.324	0.085
292.685	0.085
293.046	0.084
293.408	0.085
293.769	0.083
294.13	0.083
294.491	0.081
294.852	0.08
295.213	0.081
295.574	0.079
295.935	0.08
296.296	0.081
296.657	0.079
297.018	0.078
297.378	0.076
297.739	0.076
298.1	0.076
298.461	0.075
298.821	0.074
299.182	0.076
299.543	0.074
299.903	0.073
300.264	0.074
300.624	0.073
300.985	0.071
301.345	0.07
301.706	0.071
302.066	0.069
302.427	0.069
302.787	0.068
303.147	0.072
303.508	0.069
303.868	0.068
304.228	0.067
304.588	0.066
304.948	0.067
305.309	0.065
305.669	0.066
306.029	0.064
306.389	0.064
306.749	0.064
307.109	0.064
307.469	0.062
307.829	0.064
308.189	0.062
308.548	0.064
308.908	0.061
309.268	0.061
309.628	0.059
309.987	0.06
310.347	0.059
310.707	0.059
311.066	0.06
311.426	0.057
311.786	0.058
312.145	0.055
312.505	0.057
312.864	0.058
313.224	0.056
313.583	0.056
313.942	0.056
314.302	0.056
314.661	0.055
315.02	0.055
315.379	0.054
315.739	0.055
316.098	0.054
316.457	0.055
316.816	0.056
317.175	0.053
317.534	0.053
317.893	0.053
318.252	0.054
318.611	0.052
318.97	0.052
319.329	0.052
319.688	0.051
320.047	0.051
320.405	0.054
320.764	0.052
321.123	0.052
321.482	0.051
321.84	0.051
322.199	0.05
322.558	0.051
322.916	0.05
323.275	0.049
323.633	0.047
323.992	0.047
324.35	0.045
324.709	0.045
325.067	0.044
325.425	0.044
325.784	0.046
326.142	0.046
326.5	0.044
326.858	0.046
327.216	0.042
327.575	0.045
327.933	0.045
328.291	0.046
328.649	0.044
329.007	0.043
329.365	0.042
329.723	0.042
330.081	0.042
330.439	0.042
330.797	0.043
331.154	0.042
331.512	0.039
331.87	0.042
332.228	0.04
332.585	0.042
332.943	0.041
333.301	0.041
333.658	0.041
334.016	0.04
334.373	0.041
334.731	0.039
335.088	0.039
335.446	0.04
335.803	0.039
336.161	0.04
336.518	0.039
336.875	0.039
337.232	0.037
337.59	0.038
337.947	0.039
338.304	0.038
338.661	0.037
339.018	0.036
339.375	0.037
339.732	0.035
340.09	0.035
340.446	0.037
340.803	0.035
341.16	0.034
341.517	0.033
341.874	0.034
342.231	0.034
342.588	0.035
342.944	0.035
343.301	0.036
343.658	0.035
344.014	0.033
344.371	0.033
344.728	0.034
345.084	0.033
345.441	0.033
345.797	0.034
346.154	0.034
346.51	0.034
346.867	0.032
347.223	0.03
347.579	0.033
347.936	0.032
348.292	0.032
348.648	0.03
349.004	0.032
349.36	0.03
349.716	0.029
350.073	0.03
350.429	0.03
350.785	0.031
351.141	0.03
351.497	0.029
351.853	0.028
352.208	0.031
352.564	0.029
352.92	0.028
353.276	0.027
353.632	0.028
353.987	0.027
354.343	0.026
354.699	0.027
355.054	0.028
355.41	0.028
355.766	0.025
356.121	0.026
356.477	0.027
356.832	0.027
357.187	0.026
357.543	0.027
357.898	0.025
358.254	0.025
358.609	0.026
358.964	0.027
359.319	0.026
359.675	0.027
360.03	0.023
360.385	0.028
360.74	0.025
361.095	0.024
361.45	0.023
361.805	0.024
362.16	0.026
362.515	0.024
362.87	0.023
363.225	0.024
363.58	0.02
363.934	0.021
364.289	0.023
364.644	0.024
364.999	0.022
365.353	0.021
365.708	0.022
366.062	0.021
366.417	0.024
366.772	0.022
367.126	0.021
367.48	0.022
367.835	0.023
368.189	0.02
368.544	0.02
368.898	0.02
369.252	0.02
369.607	0.02
369.961	0.021
370.315	0.02
370.669	0.02
371.023	0.02
371.377	0.017
371.731	0.02
372.085	0.02
372.439	0.02
372.793	0.02
373.147	0.019
373.501	0.017
373.855	0.018
374.209	0.019
374.563	0.017
374.916	0.019
375.27	0.018
375.624	0.017
375.977	0.017
376.331	0.018
376.685	0.015
377.038	0.016
377.392	0.018
377.745	0.016
378.099	0.016
378.452	0.017
378.805	0.017
379.159	0.017
379.512	0.017
379.865	0.015
380.219	0.016
380.572	0.016
380.925	0.014
381.278	0.016
381.631	0.016
381.984	0.014
382.337	0.017
382.69	0.015
383.043	0.016
383.396	0.016
383.749	0.014
384.102	0.017
384.455	0.015
384.808	0.015
385.161	0.012
385.513	0.017
385.866	0.013
386.219	0.013
386.571	0.016
386.924	0.013
387.276	0.013
387.629	0.014
387.981	0.013
388.334	0.012
388.686	0.014
389.039	0.01
389.391	0.013
389.743	0.012
390.096	0.011
390.448	0.013
390.8	0.015
391.152	0.011
391.505	0.014
391.857	0.01
392.209	0.013
392.561	0.013
392.913	0.011
393.265	0.011
393.617	0.011
393.969	0.013
394.321	0.014
394.672	0.009
395.024	0.013
395.376	0.012
395.728	0.009
396.079	0.009
396.431	0.013
396.783	0.013
397.134	0.009
397.486	0.012
397.837	0.009
398.189	0.012
398.54	0.011
398.892	0.011
399.243	0.009
399.595	0.009
399.946	0.011
400.297	0.011
400.649	0.008
401	0.01
401.351	0.007
401.702	0.012
402.053	0.01
402.404	0.008
402.755	0.01
403.106	0.01
403.457	0.009
403.808	0.011
404.159	0.008
404.51	0.01
404.861	0.009
405.212	0.007
405.562	0.01
405.913	0.012
406.264	0.011
406.615	0.008
406.965	0.011
407.316	0.008
407.666	0.008
408.017	0.009
408.367	0.01
408.718	0.009
409.068	0.007
409.419	0.009
409.769	0.009
410.119	0.009
410.47	0.009
410.82	0.007
411.17	0.01
411.52	0.009
411.87	0.008
412.221	0.009
412.571	0.012
412.921	0.008
413.271	0.008
413.621	0.008
413.971	0.01
414.32	0.007
414.67	0.009
415.02	0.007
415.37	0.006
415.72	0.008
416.069	0.009
416.419	0.009
416.769	0.008
417.118	0.007
417.468	0.008
417.818	0.006
418.167	0.007
418.517	0.005
418.866	0.008
419.215	0.008
419.565	0.006
419.914	0.008
420.263	0.009
420.613	0.009
420.962	0.006
421.311	0.009
421.66	0.008
422.009	0.006
422.358	0.005
422.708	0.005
423.057	0.008
423.406	0.006
423.754	0.007
424.103	0.006
424.452	0.008
424.801	0.008
425.15	0.008
425.499	0.004
425.847	0.007
426.196	0.004
426.545	0.006
426.893	0.006
427.242	0.006
427.591	0.005
427.939	0.005
428.288	0.006
428.636	0.004
428.984	0.006
429.333	0.005
429.681	0.004
430.029	0.004
430.378	0.004
430.726	0.005
431.074	0.007
431.422	0.005
431.771	0.002
432.119	0.006
432.467	0.005
432.815	0.005
433.163	0.005
433.511	0.005
433.859	0.006
434.206	0.006
434.554	0.005
434.902	0.007
435.25	0.004
435.598	0.004
435.945	0.003
436.293	0.007
436.641	0.004
436.988	0.004
437.336	0.006
437.683	0.002
438.031	0.007
438.378	0.007
438.726	0.004
439.073	0.006
439.42	0.005
439.768	0.001
440.115	0.001
440.462	0.005
440.809	0.004
441.157	0.005
441.504	0.005
441.851	0.004
442.198	0.004
442.545	0.003
442.892	0.002
443.239	0.006
443.586	0.006
443.933	0.005
444.28	0.002
444.626	0.006
444.973	0.004
445.32	0.002
445.667	0.003
446.013	0.005
446.36	0.004
446.706	0.002
447.053	0.004
447.4	0.004
447.746	0.004
448.092	0.003
448.439	0.001
448.785	0.003
449.132	0.005
449.478	0.007
449.824	0.004
450.17	0.004
450.517	0.001
450.863	0.002
451.209	0.005
451.555	0.005
451.901	0.004
452.247	0.005
452.593	0.001
452.939	0.003
453.285	0.001
453.631	0.003
453.977	0.004
454.322	-0.001
454.668	0.003
455.014	0.002
455.359	0.005
455.705	0.002
456.051	0.003
456.396	0.004
456.742	0.006
457.087	0.001
457.433	0.002
457.778	0.002
458.124	0.002
458.469	0.005
458.814	0.004
459.16	0.002
459.505	0.003
459.85	0.004
460.195	0.001
460.54	0
460.886	0.003
461.231	0.003
461.576	0.002
461.921	0.004
462.266	0.005
462.61	0.004
462.955	0.004
463.3	0.005
463.645	-0
463.99	0.006
464.335	0.005
464.679	0
465.024	0.004
465.369	0.003
465.713	0.002
466.058	0.004
466.402	0.005
466.747	0.006
467.091	0.002
467.436	0.003
467.78	0.003
468.124	0.001
468.469	0.001
468.813	0.004
469.157	0.004
469.501	0.001
469.845	0.003
470.189	0.002
470.534	0.003
470.878	0.002
471.222	0.003
471.566	0.003
471.909	0.004
472.253	0.004
472.597	0.004
472.941	0.002
473.285	-0.001
473.629	0.003
473.972	0.002
474.316	0.004
474.66	0.001
475.003	0.002
475.347	0.003
475.69	0.001
476.034	0.001
476.377	0
476.721	0.003
477.064	0.002
477.407	0.001
477.751	0.002
478.094	0.003
478.437	0.004
478.78	0.002
479.123	0.001
479.467	0.001
479.81	0.005
480.153	0.001
480.496	0.002
480.839	0.001
481.182	0.002
481.524	0.001
481.867	0.001
482.21	0.001
482.553	0.003
482.896	0.003
483.238	0.003
483.581	0.001
483.924	0.002
484.266	0
484.609	0.001
484.951	0.003
485.294	0.002
485.636	0.002
485.979	0.001
486.321	0.002
486.663	0.003
487.006	0.002
487.348	0.001
487.69	0.002
488.032	0.001
488.374	-0.002
488.717	0.003
489.059	0.002
489.401	0
489.743	0
490.085	0.002
490.426	0.005
490.768	0.001
491.11	0.002
491.452	0.001
491.794	0.002
492.136	0.001
492.477	0.002
492.819	0.001
493.16	0.001
493.502	0.002
493.844	0.002
494.185	0.002
494.527	0.001
494.868	-0.001
495.209	0.002
495.551	0.002
495.892	0.001
496.233	0.002
496.575	-0
496.916	0.001
497.257	-0
497.598	0.002
497.939	0
498.28	0
498.621	0
498.962	0.002
499.303	0.001
499.644	0.001
499.985	0.001
500.326	0.001
500.667	0.003
501.007	0.002
501.348	0.003
501.689	0.002
502.029	0.002
502.37	0.002
502.711	0.002
503.051	-0
503.392	0
503.732	0
504.072	-0.001
504.413	0.001
504.753	0
505.093	0.001
505.434	0.002
505.774	0.001
506.114	0.002
506.454	0.002
506.794	0.001
507.134	0.002
507.474	0.001
507.814	0.001
508.154	0
508.494	0.001
508.834	0.002
509.174	0.002
509.514	0.001
509.854	0.001
510.193	0
510.533	0.003
510.873	0.001
511.212	0.003
511.552	0.001
511.891	0.002
512.231	0.001
512.57	0.002
512.91	0.002
513.249	0.001
513.588	0.001
513.928	0.002
514.267	0.001
514.606	0.001
514.945	0.003
515.285	0.001
515.624	0.001
515.963	0.001
516.302	0
516.641	0.001
516.98	0.001
517.319	0.001
517.658	0
517.996	0.002
518.335	-0
518.674	0
519.013	0.001
519.351	0.001
519.69	-0.001
520.029	0.001
520.367	0.002
520.706	0
521.044	0.001
521.383	0.001
521.721	0.001
522.06	0.001
522.398	0.001
522.736	0.001
523.074	0.001
523.413	0
523.751	0.001
524.089	-0
524.427	0
524.765	0.001
525.103	0
525.441	0.001
525.779	0.001
526.117	0.001
526.455	0.002
526.793	0.003
527.131	0.001
527.468	-0.001
527.806	0.002
528.144	0.002
528.482	0.002
528.819	0.001
529.157	0
529.494	0.002
529.832	0.001
530.169	0.001
530.507	-0
530.844	0.002
531.181	0.002
531.519	0.001
531.856	-0
532.193	-0
532.53	0.001
532.867	0.001
533.205	0.001
533.542	0.001
533.879	0.003
534.216	0
534.553	0.001
534.89	-0
535.226	0
535.563	0.003
535.9	0
536.237	0.001
536.573	-0.001
536.91	0.003
537.247	0.002
537.583	0.001
537.92	0.001
538.256	0.002
538.593	0.001
538.929	0
539.266	0.001
539.602	-0.001
539.938	0.002
540.275	0.001
540.611	0.002
540.947	0.002
541.283	0.002
541.62	0.003
541.956	0
542.292	0.001
542.628	0.002
542.964	0.003
543.3	0.001
543.635	0.002
543.971	0.001
544.307	-0
544.643	0.001
544.979	0.002
545.314	0.001
545.65	0.002
545.986	-0
546.321	0.001
546.657	0.002
546.992	0.002
547.328	0.003
547.663	0.002
547.999	0.002
548.334	0.003
548.669	0.002
549.004	0.001
549.34	0.002
549.675	-0
550.01	0.001
550.345	0.001
550.68	0
551.015	0.001
551.35	0.002
551.685	0
552.02	0.001
552.355	0.001
552.69	-0
553.025	0.001
553.359	0.001
553.694	0.001
554.029	0
554.363	0.001
554.698	0.001
555.032	0.003
555.367	0.001
555.701	0.002
556.036	0.001
556.37	0.001
556.705	0
557.039	0
557.373	0.001
557.707	0.002
558.042	0.001
558.376	0
558.71	-0.001
559.044	-0
559.378	0.001
559.712	-0
560.046	0
560.38	0.001
560.714	0.001
561.048	-0
561.381	0.001
561.715	0.002
562.049	0.001
562.383	0.002
562.716	0.002
563.05	0.002
563.383	0.001
563.717	0.001
564.05	0.001
564.384	0.002
564.717	0.001
565.051	0.002
565.384	0.001
565.717	0.004
566.05	0
566.384	0.001
566.717	0.002
567.05	-0
567.383	0.002
567.716	0.001
568.049	-0.001
568.382	0.001
568.715	0.001
569.048	0.001
569.381	0.001
569.713	0
570.046	-0.001
570.379	0.001
570.712	0.002
571.044	0.001
571.377	-0.001
571.709	0.001
572.042	0.001
572.374	-0.001
572.707	0.001
573.039	0.001
573.372	0.001
573.704	0.002
574.036	-0.001
574.368	-0
574.701	-0.001
575.033	0.002
575.365	0.001
575.697	-0
576.029	-0
576.361	-0.001
576.693	0.001
577.025	-0.001
577.357	0.001
577.689	0.001
578.02	-0
578.352	0.001
578.684	-0
579.015	0.001
579.347	-0
579.679	0.001
580.01	-0
580.342	0
580.673	0
581.005	-0.001
581.336	0.001
581.667	0.002
581.999	-0
582.33	0.001
582.661	0.001
582.992	-0
583.324	-0
583.655	-0
583.986	-0
584.317	-0.001
584.648	-0.001
584.979	0.001
585.31	-0
585.64	0
585.971	0
586.302	-0
586.633	0.001
586.963	0.001
587.294	-0.001
587.625	0
587.955	-0
588.286	0.001
588.616	-0
588.947	0
589.277	-0
589.608	0.001
589.938	-0
590.268	0.002
590.598	0.001
590.929	0
591.259	0
591.589	-0
591.919	-0.001
592.249	0.001
592.579	0.002
592.909	0.001
593.239	0.001
593.569	-0
593.899	-0.001
594.228	-0.002
594.558	0.001
594.888	0.001
595.218	0.001
595.547	0.001
595.877	0.001
596.206	0.001
596.536	0
596.865	0.001
597.195	-0
597.524	0.001
597.854	-0
598.183	0.001
598.512	0
598.841	-0.001
599.171	0
599.5	-0
599.829	-0
600.158	-0
600.487	0
600.816	0.001
601.145	0
601.474	0
601.803	0
602.131	-0
602.46	0.001
602.789	0.001
603.118	-0
603.446	0
603.775	0.001
604.103	0
604.432	-0.001
604.76	-0
605.089	0.001
605.417	0.002
605.746	0
606.074	0.002
606.402	0.001
606.73	0.001
607.059	0.001
607.387	0
607.715	0.001
608.043	0.002
608.371	-0
608.699	0.002
609.027	0
609.355	0.001
609.683	0
610.01	-0.002
610.338	0.001
610.666	-0
610.994	0.001
611.321	-0.001
611.649	0.001
611.977	0.002
612.304	-0
612.632	-0
612.959	-0.001
613.286	0
613.614	0.001
613.941	-0
614.268	0.002
614.596	0
614.923	0
615.25	0.001
615.577	0
615.904	0
616.231	0.001
616.558	-0
616.885	0.001
617.212	0.001
617.539	0.002
617.866	0.001
618.192	-0
618.519	0
618.846	0
619.173	0.001
619.499	0.001
619.826	-0.001
620.152	-0
620.479	0
620.805	0.002
621.132	0.002
621.458	0.001
621.784	0.002
622.111	-0.001
622.437	-0.001
622.763	0.001
623.089	-0
623.415	0
623.741	0.002
624.067	-0
624.393	-0
624.719	0.001
625.045	0
625.371	0
625.697	-0
626.023	0.001
626.348	0.002
626.674	0
627	0.001
627.325	0.001
627.651	0.002
627.976	0.002
628.302	0.001
628.627	0
628.953	0
629.278	0.003
629.603	0
629.929	0.002
630.254	0.001
630.579	0.001
630.904	0.001
631.229	0.001
631.554	0.001
631.879	0
632.204	-0.001
632.529	0
632.854	-0
633.179	0.001
633.504	0
633.829	-0
634.153	-0
634.478	0.001
634.803	-0.002
635.127	0
635.452	0.001
635.776	0
636.101	0.002
636.425	-0
636.75	0.001
637.074	0
637.398	0.001
637.723	-0
638.047	-0
638.371	0.001
638.695	0.001
639.019	0.001
639.343	-0
639.667	0.001
639.991	-0
640.315	-0
640.639	-0
640.963	0.001
641.287	-0
641.61	0.001
641.934	0.001
642.258	-0.001
642.581	-0.001
642.905	0.001
643.228	-0.001
643.552	0.001
643.875	0.001
644.199	-0
644.522	0.002
644.845	0.002
645.169	0.001
645.492	-0
645.815	0
646.138	0.001
646.461	0
646.784	-0
647.107	-0.001
647.43	0.001
647.753	0.001
648.076	0
648.399	0
648.722	0.001
649.045	-0
649.367	0.001
649.69	0
650.013	0
650.335	0
650.658	0.001
650.98	0.002
651.303	-0
651.625	-0.001
651.948	-0.001
652.27	0.001
652.592	0
652.914	-0
653.237	0
